#  E (eV)   dos(E)     Int dos(E) EFermi =   11.191 eV
   5.000  0.6769E+01  0.2263E+02
   5.010  0.6571E+01  0.2270E+02
   5.020  0.6322E+01  0.2276E+02
   5.030  0.6022E+01  0.2282E+02
   5.040  0.6611E+01  0.2289E+02
   5.050  0.7866E+01  0.2296E+02
   5.060  0.6880E+01  0.2303E+02
   5.070  0.3882E+01  0.2310E+02
   5.080  0.3831E+01  0.2314E+02
   5.090  0.3782E+01  0.2318E+02
   5.100  0.3736E+01  0.2322E+02
   5.110  0.3691E+01  0.2326E+02
   5.120  0.3649E+01  0.2329E+02
   5.130  0.3609E+01  0.2333E+02
   5.140  0.3571E+01  0.2336E+02
   5.150  0.3536E+01  0.2340E+02
   5.160  0.3509E+01  0.2344E+02
   5.170  0.3344E+01  0.2347E+02
   5.180  0.3308E+01  0.2350E+02
   5.190  0.3269E+01  0.2354E+02
   5.200  0.3244E+01  0.2357E+02
   5.210  0.3231E+01  0.2360E+02
   5.220  0.7891E+01  0.2365E+02
   5.230  0.3753E+01  0.2370E+02
   5.240  0.4363E+01  0.2379E+02
   5.250  0.4376E+01  0.2383E+02
   5.260  0.4392E+01  0.2387E+02
   5.270  0.4409E+01  0.2392E+02
   5.280  0.4428E+01  0.2396E+02
   5.290  0.4729E+01  0.2401E+02
   5.300  0.4712E+01  0.2405E+02
   5.310  0.4693E+01  0.2410E+02
   5.320  0.4671E+01  0.2415E+02
   5.330  0.4646E+01  0.2419E+02
   5.340  0.4613E+01  0.2424E+02
   5.350  0.4578E+01  0.2429E+02
   5.360  0.4541E+01  0.2433E+02
   5.370  0.4502E+01  0.2438E+02
   5.380  0.4054E+01  0.2442E+02
   5.390  0.3954E+01  0.2446E+02
   5.400  0.3851E+01  0.2450E+02
   5.410  0.3823E+01  0.2454E+02
   5.420  0.3763E+01  0.2458E+02
   5.430  0.3754E+01  0.2461E+02
   5.440  0.3745E+01  0.2465E+02
   5.450  0.3736E+01  0.2469E+02
   5.460  0.3725E+01  0.2473E+02
   5.470  0.3714E+01  0.2476E+02
   5.480  0.3703E+01  0.2480E+02
   5.490  0.3679E+01  0.2484E+02
   5.500  0.3669E+01  0.2487E+02
   5.510  0.3660E+01  0.2491E+02
   5.520  0.3649E+01  0.2495E+02
   5.530  0.3639E+01  0.2498E+02
   5.540  0.3628E+01  0.2502E+02
   5.550  0.3616E+01  0.2506E+02
   5.560  0.3604E+01  0.2509E+02
   5.570  0.3592E+01  0.2513E+02
   5.580  0.3579E+01  0.2516E+02
   5.590  0.3812E+01  0.2521E+02
   5.600  0.4078E+01  0.2524E+02
   5.610  0.6221E+01  0.2529E+02
   5.620  0.4364E+01  0.2534E+02
   5.630  0.4334E+01  0.2538E+02
   5.640  0.4317E+01  0.2543E+02
   5.650  0.4312E+01  0.2547E+02
   5.660  0.4321E+01  0.2551E+02
   5.670  0.4341E+01  0.2556E+02
   5.680  0.4683E+01  0.2561E+02
   5.690  0.4829E+01  0.2566E+02
   5.700  0.5289E+01  0.2571E+02
   5.710  0.5077E+01  0.2576E+02
   5.720  0.4616E+01  0.2581E+02
   5.730  0.4383E+01  0.2586E+02
   5.740  0.4389E+01  0.2590E+02
   5.750  0.4402E+01  0.2594E+02
   5.760  0.4422E+01  0.2599E+02
   5.770  0.4448E+01  0.2603E+02
   5.780  0.4483E+01  0.2608E+02
   5.790  0.4540E+01  0.2612E+02
   5.800  0.4602E+01  0.2617E+02
   5.810  0.4667E+01  0.2621E+02
   5.820  0.4738E+01  0.2626E+02
   5.830  0.8094E+01  0.2633E+02
   5.840  0.4621E+01  0.2637E+02
   5.850  0.4496E+01  0.2642E+02
   5.860  0.4503E+01  0.2646E+02
   5.870  0.4511E+01  0.2651E+02
   5.880  0.4521E+01  0.2656E+02
   5.890  0.4531E+01  0.2660E+02
   5.900  0.4538E+01  0.2665E+02
   5.910  0.4547E+01  0.2669E+02
   5.920  0.4557E+01  0.2674E+02
   5.930  0.4569E+01  0.2678E+02
   5.940  0.4583E+01  0.2683E+02
   5.950  0.4599E+01  0.2687E+02
   5.960  0.4617E+01  0.2692E+02
   5.970  0.4637E+01  0.2697E+02
   5.980  0.4659E+01  0.2701E+02
   5.990  0.4696E+01  0.2706E+02
   6.000  0.4721E+01  0.2711E+02
   6.010  0.4747E+01  0.2715E+02
   6.020  0.4772E+01  0.2720E+02
   6.030  0.4778E+01  0.2725E+02
   6.040  0.4796E+01  0.2730E+02
   6.050  0.4811E+01  0.2735E+02
   6.060  0.4823E+01  0.2739E+02
   6.070  0.5105E+01  0.2744E+02
   6.080  0.5224E+01  0.2749E+02
   6.090  0.5250E+01  0.2755E+02
   6.100  0.5242E+01  0.2760E+02
   6.110  0.5243E+01  0.2765E+02
   6.120  0.5249E+01  0.2770E+02
   6.130  0.5274E+01  0.2776E+02
   6.140  0.5312E+01  0.2781E+02
   6.150  0.5370E+01  0.2786E+02
   6.160  0.5447E+01  0.2792E+02
   6.170  0.5528E+01  0.2797E+02
   6.180  0.5613E+01  0.2803E+02
   6.190  0.5601E+01  0.2808E+02
   6.200  0.5756E+01  0.2814E+02
   6.210  0.5822E+01  0.2820E+02
   6.220  0.5887E+01  0.2826E+02
   6.230  0.6009E+01  0.2832E+02
   6.240  0.6124E+01  0.2838E+02
   6.250  0.6255E+01  0.2844E+02
   6.260  0.6379E+01  0.2850E+02
   6.270  0.6495E+01  0.2857E+02
   6.280  0.6607E+01  0.2863E+02
   6.290  0.6716E+01  0.2870E+02
   6.300  0.6822E+01  0.2877E+02
   6.310  0.6924E+01  0.2883E+02
   6.320  0.7023E+01  0.2890E+02
   6.330  0.7119E+01  0.2898E+02
   6.340  0.8908E+01  0.2906E+02
   6.350  0.8844E+01  0.2915E+02
   6.360  0.7384E+01  0.2923E+02
   6.370  0.7742E+01  0.2930E+02
   6.380  0.8084E+01  0.2938E+02
   6.390  0.9871E+01  0.2947E+02
   6.400  0.1868E+02  0.2963E+02
   6.410  0.1265E+02  0.2979E+02
   6.420  0.1157E+02  0.2991E+02
   6.430  0.1061E+02  0.3002E+02
   6.440  0.9948E+01  0.3013E+02
   6.450  0.1071E+02  0.3024E+02
   6.460  0.1278E+02  0.3037E+02
   6.470  0.9056E+01  0.3049E+02
   6.480  0.6948E+01  0.3057E+02
   6.490  0.4460E+01  0.3063E+02
   6.500  0.4313E+01  0.3068E+02
   6.510  0.3568E+01  0.3073E+02
   6.520  0.3569E+01  0.3076E+02
   6.530  0.3569E+01  0.3080E+02
   6.540  0.3565E+01  0.3083E+02
   6.550  0.3494E+01  0.3087E+02
   6.560  0.3482E+01  0.3090E+02
   6.570  0.3469E+01  0.3094E+02
   6.580  0.3455E+01  0.3097E+02
   6.590  0.3440E+01  0.3101E+02
   6.600  0.3424E+01  0.3104E+02
   6.610  0.3407E+01  0.3108E+02
   6.620  0.3388E+01  0.3111E+02
   6.630  0.3368E+01  0.3114E+02
   6.640  0.3348E+01  0.3118E+02
   6.650  0.3472E+01  0.3121E+02
   6.660  0.3435E+01  0.3125E+02
   6.670  0.3398E+01  0.3128E+02
   6.680  0.3359E+01  0.3131E+02
   6.690  0.3318E+01  0.3135E+02
   6.700  0.3275E+01  0.3138E+02
   6.710  0.3232E+01  0.3141E+02
   6.720  0.3187E+01  0.3144E+02
   6.730  0.3141E+01  0.3148E+02
   6.740  0.3094E+01  0.3151E+02
   6.750  0.2661E+01  0.3155E+02
   6.760  0.2628E+01  0.3157E+02
   6.770  0.2635E+01  0.3160E+02
   6.780  0.2641E+01  0.3163E+02
   6.790  0.2609E+01  0.3165E+02
   6.800  0.2577E+01  0.3168E+02
   6.810  0.2547E+01  0.3170E+02
   6.820  0.2516E+01  0.3173E+02
   6.830  0.2486E+01  0.3175E+02
   6.840  0.2457E+01  0.3178E+02
   6.850  0.2428E+01  0.3180E+02
   6.860  0.2399E+01  0.3183E+02
   6.870  0.2371E+01  0.3185E+02
   6.880  0.2342E+01  0.3188E+02
   6.890  0.2314E+01  0.3190E+02
   6.900  0.2287E+01  0.3192E+02
   6.910  0.2262E+01  0.3194E+02
   6.920  0.2237E+01  0.3197E+02
   6.930  0.2132E+01  0.3199E+02
   6.940  0.2101E+01  0.3201E+02
   6.950  0.2072E+01  0.3203E+02
   6.960  0.2043E+01  0.3205E+02
   6.970  0.2015E+01  0.3207E+02
   6.980  0.1988E+01  0.3209E+02
   6.990  0.1963E+01  0.3211E+02
   7.000  0.1938E+01  0.3213E+02
   7.010  0.1878E+01  0.3215E+02
   7.020  0.1869E+01  0.3217E+02
   7.030  0.1861E+01  0.3219E+02
   7.040  0.1852E+01  0.3221E+02
   7.050  0.1844E+01  0.3222E+02
   7.060  0.1837E+01  0.3224E+02
   7.070  0.1829E+01  0.3226E+02
   7.080  0.1822E+01  0.3228E+02
   7.090  0.1815E+01  0.3230E+02
   7.100  0.1809E+01  0.3232E+02
   7.110  0.1802E+01  0.3233E+02
   7.120  0.1796E+01  0.3235E+02
   7.130  0.1792E+01  0.3237E+02
   7.140  0.1790E+01  0.3239E+02
   7.150  0.1790E+01  0.3241E+02
   7.160  0.1792E+01  0.3242E+02
   7.170  0.1796E+01  0.3244E+02
   7.180  0.1802E+01  0.3246E+02
   7.190  0.1819E+01  0.3248E+02
   7.200  0.1837E+01  0.3250E+02
   7.210  0.1855E+01  0.3251E+02
   7.220  0.1874E+01  0.3253E+02
   7.230  0.1893E+01  0.3255E+02
   7.240  0.1912E+01  0.3257E+02
   7.250  0.1932E+01  0.3259E+02
   7.260  0.1951E+01  0.3261E+02
   7.270  0.1971E+01  0.3263E+02
   7.280  0.1991E+01  0.3265E+02
   7.290  0.2011E+01  0.3267E+02
   7.300  0.2036E+01  0.3269E+02
   7.310  0.2063E+01  0.3271E+02
   7.320  0.2089E+01  0.3273E+02
   7.330  0.2115E+01  0.3275E+02
   7.340  0.2141E+01  0.3277E+02
   7.350  0.2166E+01  0.3279E+02
   7.360  0.2191E+01  0.3282E+02
   7.370  0.2215E+01  0.3284E+02
   7.380  0.2794E+01  0.3287E+02
   7.390  0.2884E+01  0.3290E+02
   7.400  0.2975E+01  0.3293E+02
   7.410  0.3144E+01  0.3296E+02
   7.420  0.3621E+01  0.3300E+02
   7.430  0.4063E+01  0.3303E+02
   7.440  0.4493E+01  0.3308E+02
   7.450  0.5685E+01  0.3314E+02
   7.460  0.5904E+01  0.3320E+02
   7.470  0.6115E+01  0.3326E+02
   7.480  0.6319E+01  0.3332E+02
   7.490  0.6514E+01  0.3338E+02
   7.500  0.4355E+01  0.3349E+02
   7.510  0.3577E+01  0.3353E+02
   7.520  0.2905E+01  0.3356E+02
   7.530  0.2373E+01  0.3358E+02
   7.540  0.2051E+01  0.3361E+02
   7.550  0.1766E+01  0.3362E+02
   7.560  0.1519E+01  0.3364E+02
   7.570  0.1326E+01  0.3365E+02
   7.580  0.1281E+01  0.3367E+02
   7.590  0.1237E+01  0.3368E+02
   7.600  0.1554E+01  0.3371E+02
   7.610  0.1545E+01  0.3372E+02
   7.620  0.1538E+01  0.3374E+02
   7.630  0.1533E+01  0.3375E+02
   7.640  0.1530E+01  0.3377E+02
   7.650  0.1529E+01  0.3378E+02
   7.660  0.1530E+01  0.3380E+02
   7.670  0.1533E+01  0.3382E+02
   7.680  0.1538E+01  0.3383E+02
   7.690  0.1545E+01  0.3385E+02
   7.700  0.3359E+01  0.3388E+02
   7.710  0.3454E+01  0.3391E+02
   7.720  0.3551E+01  0.3394E+02
   7.730  0.3653E+01  0.3398E+02
   7.740  0.3762E+01  0.3402E+02
   7.750  0.3077E+01  0.3407E+02
   7.760  0.3171E+01  0.3410E+02
   7.770  0.3235E+01  0.3413E+02
   7.780  0.3341E+01  0.3416E+02
   7.790  0.4131E+01  0.3421E+02
   7.800  0.4348E+01  0.3425E+02
   7.810  0.4573E+01  0.3430E+02
   7.820  0.4805E+01  0.3434E+02
   7.830  0.4915E+01  0.3440E+02
   7.840  0.4540E+01  0.3445E+02
   7.850  0.4702E+01  0.3449E+02
   7.860  0.4866E+01  0.3454E+02
   7.870  0.4663E+01  0.3459E+02
   7.880  0.4678E+01  0.3464E+02
   7.890  0.4692E+01  0.3468E+02
   7.900  0.4705E+01  0.3473E+02
   7.910  0.4715E+01  0.3478E+02
   7.920  0.4724E+01  0.3482E+02
   7.930  0.4734E+01  0.3487E+02
   7.940  0.4800E+01  0.3492E+02
   7.950  0.4866E+01  0.3497E+02
   7.960  0.4857E+01  0.3502E+02
   7.970  0.4953E+01  0.3507E+02
   7.980  0.5052E+01  0.3512E+02
   7.990  0.5153E+01  0.3517E+02
   8.000  0.5656E+01  0.3522E+02
   8.010  0.5897E+01  0.3528E+02
   8.020  0.5849E+01  0.3534E+02
   8.030  0.5778E+01  0.3540E+02
   8.040  0.5684E+01  0.3545E+02
   8.050  0.5569E+01  0.3551E+02
   8.060  0.5431E+01  0.3557E+02
   8.070  0.4979E+01  0.3562E+02
   8.080  0.4853E+01  0.3567E+02
   8.090  0.4764E+01  0.3572E+02
   8.100  0.4791E+01  0.3577E+02
   8.110  0.4820E+01  0.3582E+02
   8.120  0.4849E+01  0.3586E+02
   8.130  0.6588E+01  0.3593E+02
   8.140  0.6456E+01  0.3599E+02
   8.150  0.6826E+01  0.3606E+02
   8.160  0.7228E+01  0.3613E+02
   8.170  0.8365E+01  0.3620E+02
   8.180  0.7429E+01  0.3628E+02
   8.190  0.6926E+01  0.3635E+02
   8.200  0.6773E+01  0.3642E+02
   8.210  0.7262E+01  0.3649E+02
   8.220  0.7090E+01  0.3656E+02
   8.230  0.6824E+01  0.3663E+02
   8.240  0.6207E+01  0.3670E+02
   8.250  0.5744E+01  0.3676E+02
   8.260  0.5258E+01  0.3681E+02
   8.270  0.6057E+01  0.3687E+02
   8.280  0.6161E+01  0.3693E+02
   8.290  0.6261E+01  0.3700E+02
   8.300  0.6369E+01  0.3707E+02
   8.310  0.6503E+01  0.3713E+02
   8.320  0.6661E+01  0.3720E+02
   8.330  0.6844E+01  0.3726E+02
   8.340  0.7969E+01  0.3734E+02
   8.350  0.8837E+01  0.3742E+02
   8.360  0.9492E+01  0.3752E+02
   8.370  0.9095E+01  0.3761E+02
   8.380  0.8382E+01  0.3770E+02
   8.390  0.7693E+01  0.3779E+02
   8.400  0.7133E+01  0.3786E+02
   8.410  0.6694E+01  0.3793E+02
   8.420  0.6301E+01  0.3800E+02
   8.430  0.5944E+01  0.3806E+02
   8.440  0.5624E+01  0.3812E+02
   8.450  0.5340E+01  0.3817E+02
   8.460  0.4994E+01  0.3822E+02
   8.470  0.4828E+01  0.3827E+02
   8.480  0.4667E+01  0.3832E+02
   8.490  0.4513E+01  0.3837E+02
   8.500  0.4369E+01  0.3841E+02
   8.510  0.4234E+01  0.3845E+02
   8.520  0.4060E+01  0.3849E+02
   8.530  0.3954E+01  0.3853E+02
   8.540  0.3843E+01  0.3857E+02
   8.550  0.3736E+01  0.3861E+02
   8.560  0.3633E+01  0.3865E+02
   8.570  0.3494E+01  0.3869E+02
   8.580  0.3480E+01  0.3872E+02
   8.590  0.3386E+01  0.3876E+02
   8.600  0.3294E+01  0.3879E+02
   8.610  0.3204E+01  0.3882E+02
   8.620  0.3116E+01  0.3885E+02
   8.630  0.3031E+01  0.3888E+02
   8.640  0.2947E+01  0.3891E+02
   8.650  0.2866E+01  0.3894E+02
   8.660  0.2811E+01  0.3897E+02
   8.670  0.2790E+01  0.3900E+02
   8.680  0.2789E+01  0.3903E+02
   8.690  0.2791E+01  0.3906E+02
   8.700  0.2484E+01  0.3909E+02
   8.710  0.2525E+01  0.3912E+02
   8.720  0.2564E+01  0.3914E+02
   8.730  0.2599E+01  0.3917E+02
   8.740  0.2621E+01  0.3919E+02
   8.750  0.2650E+01  0.3922E+02
   8.760  0.2570E+01  0.3925E+02
   8.770  0.2605E+01  0.3927E+02
   8.780  0.2642E+01  0.3930E+02
   8.790  0.2680E+01  0.3932E+02
   8.800  0.2870E+01  0.3935E+02
   8.810  0.2807E+01  0.3938E+02
   8.820  0.2745E+01  0.3941E+02
   8.830  0.2681E+01  0.3944E+02
   8.840  0.2617E+01  0.3946E+02
   8.850  0.2553E+01  0.3949E+02
   8.860  0.2488E+01  0.3951E+02
   8.870  0.2422E+01  0.3954E+02
   8.880  0.2359E+01  0.3956E+02
   8.890  0.2318E+01  0.3958E+02
   8.900  0.2276E+01  0.3961E+02
   8.910  0.2234E+01  0.3963E+02
   8.920  0.2191E+01  0.3965E+02
   8.930  0.2147E+01  0.3967E+02
   8.940  0.2102E+01  0.3970E+02
   8.950  0.2056E+01  0.3972E+02
   8.960  0.2010E+01  0.3974E+02
   8.970  0.1963E+01  0.3976E+02
   8.980  0.1915E+01  0.3978E+02
   8.990  0.1866E+01  0.3979E+02
   9.000  0.1816E+01  0.3981E+02
   9.010  0.1766E+01  0.3983E+02
   9.020  0.2771E+01  0.3986E+02
   9.030  0.2520E+01  0.3989E+02
   9.040  0.1830E+01  0.3991E+02
   9.050  0.1505E+01  0.3993E+02
   9.060  0.1348E+01  0.3995E+02
   9.070  0.1408E+01  0.3996E+02
   9.080  0.1149E+01  0.3998E+02
   9.090  0.9061E+00  0.3999E+02
   9.100  0.6789E+00  0.3999E+02
   9.110  0.0000E+00  0.4000E+02
   9.120  0.0000E+00  0.4000E+02
   9.130  0.0000E+00  0.4000E+02
   9.140  0.0000E+00  0.4000E+02
   9.150  0.0000E+00  0.4000E+02
   9.160  0.0000E+00  0.4000E+02
   9.170  0.0000E+00  0.4000E+02
   9.180  0.0000E+00  0.4000E+02
   9.190  0.0000E+00  0.4000E+02
   9.200  0.0000E+00  0.4000E+02
   9.210  0.0000E+00  0.4000E+02
   9.220  0.0000E+00  0.4000E+02
   9.230  0.0000E+00  0.4000E+02
   9.240  0.0000E+00  0.4000E+02
   9.250  0.0000E+00  0.4000E+02
   9.260  0.0000E+00  0.4000E+02
   9.270  0.0000E+00  0.4000E+02
   9.280  0.0000E+00  0.4000E+02
   9.290  0.0000E+00  0.4000E+02
   9.300  0.0000E+00  0.4000E+02
   9.310  0.0000E+00  0.4000E+02
   9.320  0.0000E+00  0.4000E+02
   9.330  0.0000E+00  0.4000E+02
   9.340  0.0000E+00  0.4000E+02
   9.350  0.0000E+00  0.4000E+02
   9.360  0.0000E+00  0.4000E+02
   9.370  0.0000E+00  0.4000E+02
   9.380  0.0000E+00  0.4000E+02
   9.390  0.0000E+00  0.4000E+02
   9.400  0.0000E+00  0.4000E+02
   9.410  0.0000E+00  0.4000E+02
   9.420  0.0000E+00  0.4000E+02
   9.430  0.0000E+00  0.4000E+02
   9.440  0.0000E+00  0.4000E+02
   9.450  0.0000E+00  0.4000E+02
   9.460  0.0000E+00  0.4000E+02
   9.470  0.0000E+00  0.4000E+02
   9.480  0.0000E+00  0.4000E+02
   9.490  0.0000E+00  0.4000E+02
   9.500  0.0000E+00  0.4000E+02
   9.510  0.0000E+00  0.4000E+02
   9.520  0.0000E+00  0.4000E+02
   9.530  0.0000E+00  0.4000E+02
   9.540  0.0000E+00  0.4000E+02
   9.550  0.0000E+00  0.4000E+02
   9.560  0.0000E+00  0.4000E+02
   9.570  0.0000E+00  0.4000E+02
   9.580  0.0000E+00  0.4000E+02
   9.590  0.0000E+00  0.4000E+02
   9.600  0.0000E+00  0.4000E+02
   9.610  0.0000E+00  0.4000E+02
   9.620  0.0000E+00  0.4000E+02
   9.630  0.0000E+00  0.4000E+02
   9.640  0.0000E+00  0.4000E+02
   9.650  0.0000E+00  0.4000E+02
   9.660  0.0000E+00  0.4000E+02
   9.670  0.0000E+00  0.4000E+02
   9.680  0.0000E+00  0.4000E+02
   9.690  0.0000E+00  0.4000E+02
   9.700  0.0000E+00  0.4000E+02
   9.710  0.0000E+00  0.4000E+02
   9.720  0.0000E+00  0.4000E+02
   9.730  0.0000E+00  0.4000E+02
   9.740  0.0000E+00  0.4000E+02
   9.750  0.0000E+00  0.4000E+02
   9.760  0.0000E+00  0.4000E+02
   9.770  0.0000E+00  0.4000E+02
   9.780  0.0000E+00  0.4000E+02
   9.790  0.0000E+00  0.4000E+02
   9.800  0.0000E+00  0.4000E+02
   9.810  0.0000E+00  0.4000E+02
   9.820  0.0000E+00  0.4000E+02
   9.830  0.0000E+00  0.4000E+02
   9.840  0.0000E+00  0.4000E+02
   9.850  0.0000E+00  0.4000E+02
   9.860  0.0000E+00  0.4000E+02
   9.870  0.0000E+00  0.4000E+02
   9.880  0.0000E+00  0.4000E+02
   9.890  0.0000E+00  0.4000E+02
   9.900  0.0000E+00  0.4000E+02
   9.910  0.0000E+00  0.4000E+02
   9.920  0.0000E+00  0.4000E+02
   9.930  0.0000E+00  0.4000E+02
   9.940  0.0000E+00  0.4000E+02
   9.950  0.0000E+00  0.4000E+02
   9.960  0.0000E+00  0.4000E+02
   9.970  0.0000E+00  0.4000E+02
   9.980  0.0000E+00  0.4000E+02
   9.990  0.0000E+00  0.4000E+02
  10.000  0.0000E+00  0.4000E+02
  10.010  0.0000E+00  0.4000E+02
  10.020  0.0000E+00  0.4000E+02
  10.030  0.0000E+00  0.4000E+02
  10.040  0.0000E+00  0.4000E+02
  10.050  0.0000E+00  0.4000E+02
  10.060  0.0000E+00  0.4000E+02
  10.070  0.0000E+00  0.4000E+02
  10.080  0.0000E+00  0.4000E+02
  10.090  0.0000E+00  0.4000E+02
  10.100  0.0000E+00  0.4000E+02
  10.110  0.0000E+00  0.4000E+02
  10.120  0.0000E+00  0.4000E+02
  10.130  0.0000E+00  0.4000E+02
  10.140  0.0000E+00  0.4000E+02
  10.150  0.0000E+00  0.4000E+02
  10.160  0.0000E+00  0.4000E+02
  10.170  0.0000E+00  0.4000E+02
  10.180  0.0000E+00  0.4000E+02
  10.190  0.0000E+00  0.4000E+02
  10.200  0.0000E+00  0.4000E+02
  10.210  0.0000E+00  0.4000E+02
  10.220  0.0000E+00  0.4000E+02
  10.230  0.0000E+00  0.4000E+02
  10.240  0.0000E+00  0.4000E+02
  10.250  0.0000E+00  0.4000E+02
  10.260  0.0000E+00  0.4000E+02
  10.270  0.0000E+00  0.4000E+02
  10.280  0.0000E+00  0.4000E+02
  10.290  0.0000E+00  0.4000E+02
  10.300  0.0000E+00  0.4000E+02
  10.310  0.0000E+00  0.4000E+02
  10.320  0.0000E+00  0.4000E+02
  10.330  0.0000E+00  0.4000E+02
  10.340  0.0000E+00  0.4000E+02
  10.350  0.0000E+00  0.4000E+02
  10.360  0.0000E+00  0.4000E+02
  10.370  0.0000E+00  0.4000E+02
  10.380  0.0000E+00  0.4000E+02
  10.390  0.0000E+00  0.4000E+02
  10.400  0.0000E+00  0.4000E+02
  10.410  0.0000E+00  0.4000E+02
  10.420  0.0000E+00  0.4000E+02
  10.430  0.0000E+00  0.4000E+02
  10.440  0.0000E+00  0.4000E+02
  10.450  0.0000E+00  0.4000E+02
  10.460  0.0000E+00  0.4000E+02
  10.470  0.0000E+00  0.4000E+02
  10.480  0.0000E+00  0.4000E+02
  10.490  0.0000E+00  0.4000E+02
  10.500  0.0000E+00  0.4000E+02
  10.510  0.0000E+00  0.4000E+02
  10.520  0.0000E+00  0.4000E+02
  10.530  0.0000E+00  0.4000E+02
  10.540  0.0000E+00  0.4000E+02
  10.550  0.0000E+00  0.4000E+02
  10.560  0.0000E+00  0.4000E+02
  10.570  0.0000E+00  0.4000E+02
  10.580  0.0000E+00  0.4000E+02
  10.590  0.0000E+00  0.4000E+02
  10.600  0.0000E+00  0.4000E+02
  10.610  0.0000E+00  0.4000E+02
  10.620  0.0000E+00  0.4000E+02
  10.630  0.0000E+00  0.4000E+02
  10.640  0.0000E+00  0.4000E+02
  10.650  0.0000E+00  0.4000E+02
  10.660  0.0000E+00  0.4000E+02
  10.670  0.0000E+00  0.4000E+02
  10.680  0.0000E+00  0.4000E+02
  10.690  0.0000E+00  0.4000E+02
  10.700  0.0000E+00  0.4000E+02
  10.710  0.0000E+00  0.4000E+02
  10.720  0.0000E+00  0.4000E+02
  10.730  0.0000E+00  0.4000E+02
  10.740  0.0000E+00  0.4000E+02
  10.750  0.0000E+00  0.4000E+02
  10.760  0.0000E+00  0.4000E+02
  10.770  0.0000E+00  0.4000E+02
  10.780  0.0000E+00  0.4000E+02
  10.790  0.0000E+00  0.4000E+02
  10.800  0.0000E+00  0.4000E+02
  10.810  0.0000E+00  0.4000E+02
  10.820  0.0000E+00  0.4000E+02
  10.830  0.0000E+00  0.4000E+02
  10.840  0.0000E+00  0.4000E+02
  10.850  0.0000E+00  0.4000E+02
  10.860  0.0000E+00  0.4000E+02
  10.870  0.0000E+00  0.4000E+02
  10.880  0.0000E+00  0.4000E+02
  10.890  0.0000E+00  0.4000E+02
  10.900  0.0000E+00  0.4000E+02
  10.910  0.0000E+00  0.4000E+02
  10.920  0.0000E+00  0.4000E+02
  10.930  0.0000E+00  0.4000E+02
  10.940  0.0000E+00  0.4000E+02
  10.950  0.0000E+00  0.4000E+02
  10.960  0.0000E+00  0.4000E+02
  10.970  0.0000E+00  0.4000E+02
  10.980  0.0000E+00  0.4000E+02
  10.990  0.0000E+00  0.4000E+02
  11.000  0.0000E+00  0.4000E+02
  11.010  0.0000E+00  0.4000E+02
  11.020  0.0000E+00  0.4000E+02
  11.030  0.0000E+00  0.4000E+02
  11.040  0.0000E+00  0.4000E+02
  11.050  0.0000E+00  0.4000E+02
  11.060  0.0000E+00  0.4000E+02
  11.070  0.0000E+00  0.4000E+02
  11.080  0.0000E+00  0.4000E+02
  11.090  0.0000E+00  0.4000E+02
  11.100  0.0000E+00  0.4000E+02
  11.110  0.0000E+00  0.4000E+02
  11.120  0.0000E+00  0.4000E+02
  11.130  0.0000E+00  0.4000E+02
  11.140  0.0000E+00  0.4000E+02
  11.150  0.0000E+00  0.4000E+02
  11.160  0.0000E+00  0.4000E+02
  11.170  0.0000E+00  0.4000E+02
  11.180  0.0000E+00  0.4000E+02
  11.190  0.0000E+00  0.4000E+02
  11.200  0.0000E+00  0.4000E+02
  11.210  0.0000E+00  0.4000E+02
  11.220  0.0000E+00  0.4000E+02
  11.230  0.0000E+00  0.4000E+02
  11.240  0.0000E+00  0.4000E+02
  11.250  0.0000E+00  0.4000E+02
  11.260  0.0000E+00  0.4000E+02
  11.270  0.0000E+00  0.4000E+02
  11.280  0.0000E+00  0.4000E+02
  11.290  0.0000E+00  0.4000E+02
  11.300  0.0000E+00  0.4000E+02
  11.310  0.0000E+00  0.4000E+02
  11.320  0.0000E+00  0.4000E+02
  11.330  0.0000E+00  0.4000E+02
  11.340  0.0000E+00  0.4000E+02
  11.350  0.0000E+00  0.4000E+02
  11.360  0.0000E+00  0.4000E+02
  11.370  0.0000E+00  0.4000E+02
  11.380  0.0000E+00  0.4000E+02
  11.390  0.0000E+00  0.4000E+02
  11.400  0.0000E+00  0.4000E+02
  11.410  0.0000E+00  0.4000E+02
  11.420  0.0000E+00  0.4000E+02
  11.430  0.0000E+00  0.4000E+02
  11.440  0.0000E+00  0.4000E+02
  11.450  0.0000E+00  0.4000E+02
  11.460  0.0000E+00  0.4000E+02
  11.470  0.0000E+00  0.4000E+02
  11.480  0.0000E+00  0.4000E+02
  11.490  0.0000E+00  0.4000E+02
  11.500  0.0000E+00  0.4000E+02
  11.510  0.0000E+00  0.4000E+02
  11.520  0.0000E+00  0.4000E+02
  11.530  0.0000E+00  0.4000E+02
  11.540  0.0000E+00  0.4000E+02
  11.550  0.0000E+00  0.4000E+02
  11.560  0.0000E+00  0.4000E+02
  11.570  0.0000E+00  0.4000E+02
  11.580  0.0000E+00  0.4000E+02
  11.590  0.0000E+00  0.4000E+02
  11.600  0.0000E+00  0.4000E+02
  11.610  0.0000E+00  0.4000E+02
  11.620  0.0000E+00  0.4000E+02
  11.630  0.0000E+00  0.4000E+02
  11.640  0.0000E+00  0.4000E+02
  11.650  0.0000E+00  0.4000E+02
  11.660  0.0000E+00  0.4000E+02
  11.670  0.0000E+00  0.4000E+02
  11.680  0.0000E+00  0.4000E+02
  11.690  0.4012E+00  0.4000E+02
  11.700  0.4797E+00  0.4001E+02
  11.710  0.5608E+00  0.4001E+02
  11.720  0.6445E+00  0.4002E+02
  11.730  0.8282E+00  0.4004E+02
  11.740  0.9218E+00  0.4004E+02
  11.750  0.6731E+00  0.4005E+02
  11.760  0.7084E+00  0.4006E+02
  11.770  0.7444E+00  0.4007E+02
  11.780  0.7813E+00  0.4008E+02
  11.790  0.8189E+00  0.4008E+02
  11.800  0.8572E+00  0.4009E+02
  11.810  0.8963E+00  0.4010E+02
  11.820  0.1084E+01  0.4011E+02
  11.830  0.1135E+01  0.4012E+02
  11.840  0.1188E+01  0.4013E+02
  11.850  0.1241E+01  0.4015E+02
  11.860  0.8762E+00  0.4017E+02
  11.870  0.8907E+00  0.4018E+02
  11.880  0.9053E+00  0.4019E+02
  11.890  0.9199E+00  0.4020E+02
  11.900  0.9345E+00  0.4021E+02
  11.910  0.9491E+00  0.4022E+02
  11.920  0.9637E+00  0.4023E+02
  11.930  0.9784E+00  0.4023E+02
  11.940  0.9930E+00  0.4024E+02
  11.950  0.1008E+01  0.4025E+02
  11.960  0.1022E+01  0.4026E+02
  11.970  0.1037E+01  0.4028E+02
  11.980  0.1052E+01  0.4029E+02
  11.990  0.1067E+01  0.4030E+02
  12.000  0.1081E+01  0.4031E+02
  12.010  0.1096E+01  0.4032E+02
  12.020  0.1111E+01  0.4033E+02
  12.030  0.1126E+01  0.4034E+02
  12.040  0.1141E+01  0.4035E+02
  12.050  0.1155E+01  0.4036E+02
  12.060  0.1170E+01  0.4037E+02
  12.070  0.1185E+01  0.4039E+02
  12.080  0.1200E+01  0.4040E+02
  12.090  0.1215E+01  0.4041E+02
  12.100  0.1230E+01  0.4042E+02
  12.110  0.1245E+01  0.4043E+02
  12.120  0.1260E+01  0.4045E+02
  12.130  0.1275E+01  0.4046E+02
  12.140  0.1290E+01  0.4047E+02
  12.150  0.1305E+01  0.4049E+02
  12.160  0.1320E+01  0.4050E+02
  12.170  0.1335E+01  0.4051E+02
  12.180  0.1350E+01  0.4053E+02
  12.190  0.1365E+01  0.4054E+02
  12.200  0.1380E+01  0.4055E+02
  12.210  0.1412E+01  0.4057E+02
  12.220  0.1447E+01  0.4058E+02
  12.230  0.1734E+01  0.4060E+02
  12.240  0.1783E+01  0.4062E+02
  12.250  0.1823E+01  0.4063E+02
  12.260  0.1853E+01  0.4065E+02
  12.270  0.1874E+01  0.4067E+02
  12.280  0.1885E+01  0.4069E+02
  12.290  0.1886E+01  0.4071E+02
  12.300  0.1668E+01  0.4073E+02
  12.310  0.1628E+01  0.4074E+02
  12.320  0.1638E+01  0.4076E+02
  12.330  0.1647E+01  0.4078E+02
  12.340  0.1653E+01  0.4079E+02
  12.350  0.1660E+01  0.4081E+02
  12.360  0.1666E+01  0.4083E+02
  12.370  0.1673E+01  0.4084E+02
  12.380  0.1680E+01  0.4086E+02
  12.390  0.1687E+01  0.4088E+02
  12.400  0.1695E+01  0.4089E+02
  12.410  0.1702E+01  0.4091E+02
  12.420  0.1710E+01  0.4093E+02
  12.430  0.1717E+01  0.4094E+02
  12.440  0.1725E+01  0.4096E+02
  12.450  0.1733E+01  0.4098E+02
  12.460  0.1741E+01  0.4100E+02
  12.470  0.1749E+01  0.4101E+02
  12.480  0.1757E+01  0.4103E+02
  12.490  0.1765E+01  0.4105E+02
  12.500  0.1774E+01  0.4107E+02
  12.510  0.1782E+01  0.4108E+02
  12.520  0.1791E+01  0.4110E+02
  12.530  0.1796E+01  0.4112E+02
  12.540  0.1800E+01  0.4114E+02
  12.550  0.1805E+01  0.4116E+02
  12.560  0.1811E+01  0.4117E+02
  12.570  0.1818E+01  0.4119E+02
  12.580  0.1826E+01  0.4121E+02
  12.590  0.1835E+01  0.4123E+02
  12.600  0.1844E+01  0.4125E+02
  12.610  0.1854E+01  0.4126E+02
  12.620  0.1863E+01  0.4128E+02
  12.630  0.1873E+01  0.4130E+02
  12.640  0.1886E+01  0.4132E+02
  12.650  0.1900E+01  0.4134E+02
  12.660  0.1914E+01  0.4136E+02
  12.670  0.1930E+01  0.4138E+02
  12.680  0.1947E+01  0.4140E+02
  12.690  0.1964E+01  0.4142E+02
  12.700  0.1981E+01  0.4144E+02
  12.710  0.1998E+01  0.4146E+02
  12.720  0.2015E+01  0.4148E+02
  12.730  0.2033E+01  0.4150E+02
  12.740  0.2050E+01  0.4152E+02
  12.750  0.2067E+01  0.4154E+02
  12.760  0.2084E+01  0.4156E+02
  12.770  0.2102E+01  0.4158E+02
  12.780  0.2119E+01  0.4160E+02
  12.790  0.2137E+01  0.4162E+02
  12.800  0.2154E+01  0.4164E+02
  12.810  0.2171E+01  0.4167E+02
  12.820  0.2189E+01  0.4169E+02
  12.830  0.2206E+01  0.4171E+02
  12.840  0.2224E+01  0.4173E+02
  12.850  0.2241E+01  0.4175E+02
  12.860  0.2259E+01  0.4178E+02
  12.870  0.2277E+01  0.4180E+02
  12.880  0.2294E+01  0.4182E+02
  12.890  0.2364E+01  0.4184E+02
  12.900  0.2469E+01  0.4187E+02
  12.910  0.2586E+01  0.4189E+02
  12.920  0.2982E+01  0.4192E+02
  12.930  0.3077E+01  0.4195E+02
  12.940  0.3172E+01  0.4198E+02
  12.950  0.3268E+01  0.4202E+02
  12.960  0.3037E+01  0.4205E+02
  12.970  0.3050E+01  0.4208E+02
  12.980  0.3060E+01  0.4211E+02
  12.990  0.3098E+01  0.4214E+02
  13.000  0.3137E+01  0.4217E+02
  13.010  0.3176E+01  0.4220E+02
  13.020  0.3216E+01  0.4223E+02
  13.030  0.3287E+01  0.4227E+02
  13.040  0.3341E+01  0.4230E+02
  13.050  0.3393E+01  0.4233E+02
  13.060  0.3445E+01  0.4237E+02
  13.070  0.3495E+01  0.4240E+02
  13.080  0.3558E+01  0.4244E+02
  13.090  0.3612E+01  0.4247E+02
  13.100  0.3658E+01  0.4251E+02
  13.110  0.3698E+01  0.4255E+02
  13.120  0.3727E+01  0.4258E+02
  13.130  0.3746E+01  0.4262E+02
  13.140  0.3754E+01  0.4266E+02
  13.150  0.3752E+01  0.4270E+02
  13.160  0.3773E+01  0.4273E+02
  13.170  0.3825E+01  0.4277E+02
  13.180  0.3859E+01  0.4281E+02
  13.190  0.3892E+01  0.4285E+02
  13.200  0.3925E+01  0.4289E+02
  13.210  0.3959E+01  0.4293E+02
  13.220  0.3993E+01  0.4297E+02
  13.230  0.4027E+01  0.4301E+02
  13.240  0.4061E+01  0.4305E+02
  13.250  0.4095E+01  0.4309E+02
  13.260  0.4130E+01  0.4313E+02
  13.270  0.4165E+01  0.4317E+02
  13.280  0.4199E+01  0.4321E+02
  13.290  0.4234E+01  0.4326E+02
  13.300  0.4270E+01  0.4330E+02
  13.310  0.4305E+01  0.4334E+02
  13.320  0.4340E+01  0.4338E+02
  13.330  0.4376E+01  0.4343E+02
  13.340  0.9379E+01  0.4351E+02
  13.350  0.8511E+01  0.4361E+02
  13.360  0.8880E+01  0.4370E+02
  13.370  0.9774E+01  0.4380E+02
  13.380  0.6527E+01  0.4391E+02
  13.390  0.6434E+01  0.4397E+02
  13.400  0.6343E+01  0.4404E+02
  13.410  0.6254E+01  0.4410E+02
  13.420  0.6165E+01  0.4416E+02
  13.430  0.5928E+01  0.4422E+02
  13.440  0.5622E+01  0.4428E+02
  13.450  0.5324E+01  0.4434E+02
  13.460  0.5074E+01  0.4439E+02
  13.470  0.4942E+01  0.4444E+02
  13.480  0.4856E+01  0.4449E+02
  13.490  0.4770E+01  0.4454E+02
  13.500  0.4686E+01  0.4458E+02
  13.510  0.4177E+01  0.4463E+02
  13.520  0.4053E+01  0.4467E+02
  13.530  0.3867E+01  0.4471E+02
  13.540  0.3710E+01  0.4474E+02
  13.550  0.3663E+01  0.4478E+02
  13.560  0.3615E+01  0.4482E+02
  13.570  0.3567E+01  0.4485E+02
  13.580  0.3519E+01  0.4489E+02
  13.590  0.3472E+01  0.4492E+02
  13.600  0.3424E+01  0.4496E+02
  13.610  0.3377E+01  0.4499E+02
  13.620  0.3329E+01  0.4503E+02
  13.630  0.3282E+01  0.4506E+02
  13.640  0.3234E+01  0.4509E+02
  13.650  0.3210E+01  0.4512E+02
  13.660  0.3170E+01  0.4516E+02
  13.670  0.3130E+01  0.4519E+02
  13.680  0.3089E+01  0.4522E+02
  13.690  0.3047E+01  0.4525E+02
  13.700  0.3174E+01  0.4528E+02
  13.710  0.3100E+01  0.4531E+02
  13.720  0.3028E+01  0.4534E+02
  13.730  0.2957E+01  0.4537E+02
  13.740  0.2887E+01  0.4540E+02
  13.750  0.2904E+01  0.4543E+02
  13.760  0.2908E+01  0.4546E+02
  13.770  0.2890E+01  0.4549E+02
  13.780  0.2856E+01  0.4552E+02
  13.790  0.2796E+01  0.4555E+02
  13.800  0.2737E+01  0.4557E+02
  13.810  0.2393E+01  0.4560E+02
  13.820  0.2335E+01  0.4562E+02
  13.830  0.2278E+01  0.4565E+02
  13.840  0.2221E+01  0.4567E+02
  13.850  0.2164E+01  0.4569E+02
  13.860  0.2107E+01  0.4571E+02
  13.870  0.2051E+01  0.4573E+02
  13.880  0.2196E+01  0.4577E+02
  13.890  0.2071E+01  0.4579E+02
  13.900  0.1949E+01  0.4581E+02
  13.910  0.1830E+01  0.4583E+02
  13.920  0.1715E+01  0.4584E+02
  13.930  0.1488E+01  0.4586E+02
  13.940  0.1401E+01  0.4587E+02
  13.950  0.1316E+01  0.4589E+02
  13.960  0.1234E+01  0.4590E+02
  13.970  0.1154E+01  0.4591E+02
  13.980  0.1077E+01  0.4592E+02
  13.990  0.1003E+01  0.4593E+02
  14.000  0.1303E+01  0.4595E+02
  14.010  0.1139E+01  0.4596E+02
  14.020  0.9813E+00  0.4597E+02
  14.030  0.8312E+00  0.4598E+02
  14.040  0.5967E+00  0.4599E+02
  14.050  0.0000E+00  0.4600E+02
  14.060  0.0000E+00  0.4600E+02
  14.070  0.0000E+00  0.4600E+02
  14.080  0.0000E+00  0.4600E+02
  14.090  0.0000E+00  0.4600E+02
  14.100  0.0000E+00  0.4600E+02
  14.110  0.0000E+00  0.4600E+02
  14.120  0.0000E+00  0.4600E+02
  14.130  0.0000E+00  0.4600E+02
  14.140  0.0000E+00  0.4600E+02
  14.150  0.0000E+00  0.4600E+02
  14.160  0.0000E+00  0.4600E+02
  14.170  0.0000E+00  0.4600E+02
  14.180  0.0000E+00  0.4600E+02
  14.190  0.0000E+00  0.4600E+02
  14.200  0.0000E+00  0.4600E+02
  14.210  0.0000E+00  0.4600E+02
  14.220  0.0000E+00  0.4600E+02
  14.230  0.0000E+00  0.4600E+02
  14.240  0.0000E+00  0.4600E+02
  14.250  0.0000E+00  0.4600E+02
  14.260  0.0000E+00  0.4600E+02
  14.270  0.0000E+00  0.4600E+02
  14.280  0.0000E+00  0.4600E+02
  14.290  0.0000E+00  0.4600E+02
  14.300  0.0000E+00  0.4600E+02
  14.310  0.0000E+00  0.4600E+02
  14.320  0.8242E+00  0.4610E+02
  14.330  0.8309E+00  0.4611E+02
  14.340  0.8374E+00  0.4612E+02
  14.350  0.8437E+00  0.4613E+02
  14.360  0.8500E+00  0.4613E+02
  14.370  0.8561E+00  0.4614E+02
  14.380  0.8621E+00  0.4615E+02
  14.390  0.8679E+00  0.4616E+02
  14.400  0.8737E+00  0.4617E+02
  14.410  0.8793E+00  0.4618E+02
  14.420  0.8848E+00  0.4619E+02
  14.430  0.8901E+00  0.4620E+02
  14.440  0.8954E+00  0.4620E+02
  14.450  0.9005E+00  0.4621E+02
  14.460  0.9054E+00  0.4622E+02
  14.470  0.9103E+00  0.4623E+02
  14.480  0.9150E+00  0.4624E+02
  14.490  0.9196E+00  0.4625E+02
  14.500  0.9241E+00  0.4626E+02
  14.510  0.9285E+00  0.4627E+02
  14.520  0.9327E+00  0.4628E+02
  14.530  0.9368E+00  0.4629E+02
  14.540  0.9408E+00  0.4630E+02
  14.550  0.9446E+00  0.4631E+02
  14.560  0.9483E+00  0.4632E+02
  14.570  0.9519E+00  0.4632E+02
  14.580  0.9554E+00  0.4633E+02
  14.590  0.9587E+00  0.4634E+02
  14.600  0.9619E+00  0.4635E+02
  14.610  0.9650E+00  0.4636E+02
  14.620  0.9680E+00  0.4637E+02
  14.630  0.9708E+00  0.4638E+02
  14.640  0.9735E+00  0.4639E+02
  14.650  0.9761E+00  0.4640E+02
  14.660  0.9786E+00  0.4641E+02
  14.670  0.9953E+00  0.4642E+02
  14.680  0.1015E+01  0.4643E+02
  14.690  0.1035E+01  0.4644E+02
  14.700  0.1056E+01  0.4645E+02
  14.710  0.1077E+01  0.4646E+02
  14.720  0.1100E+01  0.4647E+02
  14.730  0.1123E+01  0.4648E+02
  14.740  0.1147E+01  0.4650E+02
  14.750  0.1172E+01  0.4651E+02
  14.760  0.1058E+01  0.4652E+02
  14.770  0.1118E+01  0.4653E+02
  14.780  0.1184E+01  0.4654E+02
  14.790  0.1188E+01  0.4655E+02
  14.800  0.1191E+01  0.4657E+02
  14.810  0.1194E+01  0.4658E+02
  14.820  0.1197E+01  0.4659E+02
  14.830  0.1199E+01  0.4660E+02
  14.840  0.1201E+01  0.4661E+02
  14.850  0.1203E+01  0.4663E+02
  14.860  0.1205E+01  0.4664E+02
  14.870  0.1206E+01  0.4665E+02
  14.880  0.1208E+01  0.4666E+02
  14.890  0.1209E+01  0.4667E+02
  14.900  0.1209E+01  0.4669E+02
  14.910  0.1210E+01  0.4670E+02
  14.920  0.1210E+01  0.4671E+02
  14.930  0.1210E+01  0.4672E+02
  14.940  0.1209E+01  0.4673E+02
  14.950  0.1209E+01  0.4675E+02
  14.960  0.1208E+01  0.4676E+02
  14.970  0.1207E+01  0.4677E+02
  14.980  0.1206E+01  0.4678E+02
  14.990  0.1204E+01  0.4679E+02
  15.000  0.1202E+01  0.4681E+02
  15.010  0.1238E+01  0.4682E+02
  15.020  0.1284E+01  0.4683E+02
  15.030  0.1331E+01  0.4684E+02
  15.040  0.1378E+01  0.4686E+02
  15.050  0.1426E+01  0.4687E+02
  15.060  0.1475E+01  0.4689E+02
  15.070  0.1525E+01  0.4690E+02
  15.080  0.1773E+01  0.4692E+02
  15.090  0.1735E+01  0.4694E+02
  15.100  0.1695E+01  0.4695E+02
  15.110  0.1654E+01  0.4697E+02
  15.120  0.1612E+01  0.4699E+02
  15.130  0.1569E+01  0.4700E+02
  15.140  0.1524E+01  0.4702E+02
  15.150  0.1478E+01  0.4703E+02
  15.160  0.1431E+01  0.4705E+02
  15.170  0.9231E+00  0.4707E+02
  15.180  0.9166E+00  0.4708E+02
  15.190  0.9100E+00  0.4709E+02
  15.200  0.9034E+00  0.4710E+02
  15.210  0.8969E+00  0.4711E+02
  15.220  0.8904E+00  0.4712E+02
  15.230  0.8839E+00  0.4713E+02
  15.240  0.8773E+00  0.4714E+02
  15.250  0.8708E+00  0.4714E+02
  15.260  0.8643E+00  0.4715E+02
  15.270  0.8579E+00  0.4716E+02
  15.280  0.8514E+00  0.4717E+02
  15.290  0.8449E+00  0.4718E+02
  15.300  0.8385E+00  0.4719E+02
  15.310  0.8320E+00  0.4720E+02
  15.320  0.8256E+00  0.4720E+02
  15.330  0.8191E+00  0.4721E+02
  15.340  0.8127E+00  0.4722E+02
  15.350  0.8063E+00  0.4723E+02
  15.360  0.7999E+00  0.4724E+02
  15.370  0.7935E+00  0.4724E+02
  15.380  0.7871E+00  0.4725E+02
  15.390  0.7807E+00  0.4726E+02
  15.400  0.7744E+00  0.4727E+02
  15.410  0.7680E+00  0.4728E+02
  15.420  0.7616E+00  0.4728E+02
  15.430  0.7558E+00  0.4729E+02
  15.440  0.7656E+00  0.4730E+02
  15.450  0.7709E+00  0.4731E+02
  15.460  0.7648E+00  0.4731E+02
  15.470  0.7587E+00  0.4732E+02
  15.480  0.7526E+00  0.4733E+02
  15.490  0.7466E+00  0.4734E+02
  15.500  0.7406E+00  0.4734E+02
  15.510  0.7346E+00  0.4735E+02
  15.520  0.7287E+00  0.4736E+02
  15.530  0.7228E+00  0.4737E+02
  15.540  0.7170E+00  0.4737E+02
  15.550  0.7112E+00  0.4738E+02
  15.560  0.7054E+00  0.4739E+02
  15.570  0.6997E+00  0.4739E+02
  15.580  0.6940E+00  0.4740E+02
  15.590  0.6883E+00  0.4741E+02
  15.600  0.6827E+00  0.4741E+02
  15.610  0.6772E+00  0.4742E+02
  15.620  0.6716E+00  0.4743E+02
  15.630  0.6661E+00  0.4744E+02
  15.640  0.6607E+00  0.4744E+02
  15.650  0.6553E+00  0.4745E+02
  15.660  0.6499E+00  0.4745E+02
  15.670  0.6446E+00  0.4746E+02
  15.680  0.6393E+00  0.4747E+02
  15.690  0.6340E+00  0.4747E+02
  15.700  0.6288E+00  0.4748E+02
  15.710  0.6236E+00  0.4749E+02
  15.720  0.6184E+00  0.4749E+02
  15.730  0.6133E+00  0.4750E+02
  15.740  0.6083E+00  0.4751E+02
  15.750  0.6032E+00  0.4751E+02
  15.760  0.5982E+00  0.4752E+02
  15.770  0.5933E+00  0.4752E+02
  15.780  0.5884E+00  0.4753E+02
  15.790  0.5835E+00  0.4753E+02
  15.800  0.5787E+00  0.4754E+02
  15.810  0.5739E+00  0.4755E+02
  15.820  0.5691E+00  0.4755E+02
  15.830  0.5644E+00  0.4756E+02
  15.840  0.5491E+00  0.4756E+02
  15.850  0.5344E+00  0.4757E+02
  15.860  0.5204E+00  0.4757E+02
  15.870  0.5069E+00  0.4758E+02
  15.880  0.4940E+00  0.4758E+02
  15.890  0.4617E+00  0.4759E+02
  15.900  0.4582E+00  0.4759E+02
  15.910  0.4548E+00  0.4760E+02
  15.920  0.4515E+00  0.4760E+02
  15.930  0.4482E+00  0.4761E+02
  15.940  0.4451E+00  0.4761E+02
  15.950  0.4420E+00  0.4762E+02
  15.960  0.4390E+00  0.4762E+02
  15.970  0.4362E+00  0.4762E+02
  15.980  0.4334E+00  0.4763E+02
  15.990  0.4320E+00  0.4763E+02
  16.000  0.4295E+00  0.4764E+02
  16.010  0.4269E+00  0.4764E+02
  16.020  0.4244E+00  0.4765E+02
  16.030  0.4218E+00  0.4765E+02
  16.040  0.4193E+00  0.4765E+02
  16.050  0.4168E+00  0.4766E+02
  16.060  0.4143E+00  0.4766E+02
  16.070  0.4117E+00  0.4767E+02
  16.080  0.4092E+00  0.4767E+02
  16.090  0.4067E+00  0.4768E+02
  16.100  0.4042E+00  0.4768E+02
  16.110  0.4018E+00  0.4768E+02
  16.120  0.3993E+00  0.4769E+02
  16.130  0.3968E+00  0.4769E+02
  16.140  0.3943E+00  0.4770E+02
  16.150  0.3919E+00  0.4770E+02
  16.160  0.3894E+00  0.4770E+02
  16.170  0.3870E+00  0.4771E+02
  16.180  0.3845E+00  0.4771E+02
  16.190  0.3821E+00  0.4771E+02
  16.200  0.3796E+00  0.4772E+02
  16.210  0.3772E+00  0.4772E+02
  16.220  0.3748E+00  0.4773E+02
  16.230  0.3724E+00  0.4773E+02
  16.240  0.3700E+00  0.4773E+02
  16.250  0.3676E+00  0.4774E+02
  16.260  0.3652E+00  0.4774E+02
  16.270  0.3628E+00  0.4774E+02
  16.280  0.3604E+00  0.4775E+02
  16.290  0.3581E+00  0.4775E+02
  16.300  0.3557E+00  0.4776E+02
  16.310  0.3533E+00  0.4776E+02
  16.320  0.3510E+00  0.4776E+02
  16.330  0.3486E+00  0.4777E+02
  16.340  0.3463E+00  0.4777E+02
  16.350  0.3440E+00  0.4777E+02
  16.360  0.3417E+00  0.4778E+02
  16.370  0.3393E+00  0.4778E+02
  16.380  0.3370E+00  0.4778E+02
  16.390  0.3347E+00  0.4779E+02
  16.400  0.3324E+00  0.4779E+02
  16.410  0.3301E+00  0.4779E+02
  16.420  0.3278E+00  0.4780E+02
  16.430  0.3255E+00  0.4780E+02
  16.440  0.3233E+00  0.4780E+02
  16.450  0.3210E+00  0.4781E+02
  16.460  0.3187E+00  0.4781E+02
  16.470  0.3165E+00  0.4781E+02
  16.480  0.3142E+00  0.4782E+02
  16.490  0.3120E+00  0.4782E+02
  16.500  0.3098E+00  0.4782E+02
  16.510  0.3075E+00  0.4783E+02
  16.520  0.3053E+00  0.4783E+02
  16.530  0.3031E+00  0.4783E+02
  16.540  0.3009E+00  0.4783E+02
  16.550  0.2987E+00  0.4784E+02
  16.560  0.2965E+00  0.4784E+02
  16.570  0.2943E+00  0.4784E+02
  16.580  0.2921E+00  0.4785E+02
  16.590  0.2899E+00  0.4785E+02
  16.600  0.2878E+00  0.4785E+02
  16.610  0.2856E+00  0.4785E+02
  16.620  0.2834E+00  0.4786E+02
  16.630  0.2813E+00  0.4786E+02
  16.640  0.2791E+00  0.4786E+02
  16.650  0.2770E+00  0.4787E+02
  16.660  0.2749E+00  0.4787E+02
  16.670  0.2727E+00  0.4787E+02
  16.680  0.2706E+00  0.4787E+02
  16.690  0.2685E+00  0.4788E+02
  16.700  0.2664E+00  0.4788E+02
  16.710  0.2643E+00  0.4788E+02
  16.720  0.2622E+00  0.4788E+02
  16.730  0.2601E+00  0.4789E+02
  16.740  0.2580E+00  0.4789E+02
  16.750  0.2397E+01  0.4790E+02
  16.760  0.4906E+01  0.4794E+02
  16.770  0.4966E+00  0.4800E+02
  16.780  0.1899E+00  0.4800E+02
  16.790  0.2786E-01  0.4800E+02
  16.800  0.0000E+00  0.4800E+02
  16.810  0.0000E+00  0.4800E+02
  16.820  0.0000E+00  0.4800E+02
  16.830  0.0000E+00  0.4800E+02
  16.840  0.0000E+00  0.4800E+02
  16.850  0.0000E+00  0.4800E+02
  16.860  0.0000E+00  0.4800E+02
  16.870  0.0000E+00  0.4800E+02
  16.880  0.0000E+00  0.4800E+02
  16.890  0.0000E+00  0.4800E+02
  16.900  0.0000E+00  0.4800E+02
  16.910  0.0000E+00  0.4800E+02
  16.920  0.0000E+00  0.4800E+02
  16.930  0.0000E+00  0.4800E+02
  16.940  0.0000E+00  0.4800E+02
  16.950  0.0000E+00  0.4800E+02
  16.960  0.0000E+00  0.4800E+02
  16.970  0.0000E+00  0.4800E+02
  16.980  0.0000E+00  0.4800E+02
  16.990  0.0000E+00  0.4800E+02
  17.000  0.0000E+00  0.4800E+02
